LabVIEW Measurement	
Writer_Version	2
Reader_Version	2
Separator	Tab
Decimal_Separator	.
Multi_Headings	Yes
X_Columns	No
Time_Pref	Relative
Operator	IITH
Date	2019/12/02
Time	15:22:43.1173534393310546875
***End_of_Header***	
	
Channels	1	
Samples	776	
Date	2019/12/02	
Time	15:22:43.1173534393310546875	
X_Dimension	Time	
X0	4.4300000000000000E+2	
Delta_X	1.000000	
***End_of_Header***		
X_Value	Trigger (Trigger)	Comment
	169.844651
	169.632069
	169.467800
	169.274543
	169.090948
	168.897691
	168.685108
	168.501514
	168.317920
	168.143988
	167.970057
	167.902417
	167.834777
	167.641520
	167.370960
	167.119725
	166.907143
	166.742874
	166.539954
	166.375685
	166.201754
	166.008497
	165.815240
	165.602657
	165.438389
	165.264457
	165.061537
	164.906932
	164.752326
	164.568732
	164.414126
	164.201544
	164.056601
	163.863344
	163.728064
	163.728064
	163.621773
	163.428516
	163.186944
	162.955036
	162.790768
	162.616836
	162.471894
	162.307625
	162.133694
	161.950100
	161.756843
	161.621563
	161.418643
	161.244712
	161.070781
	160.925838
	160.742244
	160.597302
	160.413708
	160.259102
	160.114159
	159.969217
	159.998205
	159.911240
	159.688994
	159.466749
	159.244504
	159.012595
	158.867653
	158.732373
	158.587430
	158.442488
	158.249231
	158.055974
	157.833729
	157.621146
	157.476204
	157.244296
	157.060702
	156.877108
	156.703177
	156.548571
	156.538909
	156.403629
	156.084755
	155.814196
	155.611276
	155.437345
	155.302066
	155.157123
	155.002518
	154.828587
	154.673981
	154.480725
	154.316457
	154.181177
	154.007246
	153.852641
	153.669047
	153.524104
	153.379162
	153.253545
	153.272871
	153.214894
	152.992649
	152.722089
	152.538496
	152.345239
	152.171308
	152.055354
	151.920075
	151.746144
	151.620527
	151.436933
	151.224351
	151.089071
	150.934466
	150.799187
	150.615593
	150.480313
	150.325708
	150.200091
	150.180766
	150.229080
	150.122789
	149.794253
	149.543019
	149.311111
	149.137180
	149.011564
	148.827970
	148.625051
	148.393143
	148.228875
	148.035619
	147.871351
	147.707083
	147.494501
	147.330233
	147.185290
	147.185290
	147.223942
	147.021022
	146.711812
	146.479904
	146.238334
	146.074066
	145.977438
	145.784181
	145.581262
	145.378343
	145.223738
	145.040144
	144.866214
	144.711609
	144.537678
	144.363747
	144.209142
	144.044874
	144.102851
	144.151165
	144.006223
	143.639036
	143.349151
	143.165558
	143.010953
	142.875674
	142.730731
	142.527812
	142.324893
	142.150963
	141.986695
	141.851415
	141.696810
	141.542205
	141.426252
	141.290972
	141.165356
	141.107379
	141.329623
	141.397263
	141.184681
	140.817494
	140.546936
	140.344017
	140.286040
	140.160423
	139.996156
	139.783574
	139.561329
	139.348747
	139.165154
	138.991223
	138.817293
	138.653025
	138.450106
	138.285838
	138.140896
	138.169885
	138.363141
	138.295501
	137.918652
	137.551465
	137.271244
	137.145627
	137.029674
	136.884731
	136.681813
	136.469231
	136.266312
	136.121370
	135.937777
	135.792835
	135.599578
	135.444974
	135.261380
	135.087450
	135.058461
	135.261380
	135.309694
	135.058461
	134.613973
	134.208135
	133.985890
	133.889262
	133.705669
	133.512413
	133.290169
	133.106576
	132.903657
	132.720064
	132.565459
	132.410854
	132.207935
	132.043668
	131.850412
	131.763447
	131.985691
	132.169284
	132.024342
	131.657156
	131.174016
	130.845481
	130.690876
	130.526608
	130.372004
	130.130434
	129.927515
	129.743922
	129.560329
	129.425050
	129.231794
	129.077189
	128.912922
	128.729329
	128.565061
	128.574724
	128.893596
	129.077189
	128.941910
	128.526410
	128.023945
	127.695410
	127.540805
	127.366875
	127.183282
	126.980363
	126.796770
	126.555200
	126.381270
	126.207340
	126.033410
	125.849816
	125.646898
	125.492293
	125.318363
	125.376340
	125.627572
	125.685549
	125.414991
	124.970503
	124.497026
	124.313433
	124.120177
	123.965573
	123.743329
	123.550073
	123.327829
	123.134573
	122.950980
	122.806038
	122.603120
	122.419527
	122.255259
	122.071666
	122.177957
	122.467841
	122.438852
	122.139306
	121.656167
	121.192353
	121.008760
	120.873481
	120.709214
	120.486970
	120.264726
	120.042482
	119.878214
	119.675296
	119.540017
	119.424064
	119.240471
	119.047215
	118.998901
	119.288785
	119.501366
	119.346761
	118.882948
	118.351495
	117.955321
	117.800716
	117.655775
	117.443194
	117.201624
	116.998706
	116.766799
	116.602532
	116.418939
	116.254672
	116.080742
	115.877823
	115.800521
	116.167707
	116.447927
	116.322311
	115.858498
	115.249743
	114.814918
	114.689302
	114.554023
	114.360767
	114.138523
	113.896954
	113.694036
	113.520106
	113.336513
	113.162583
	112.978990
	112.824386
	112.940339
	113.326850
	113.462129
	113.065955
	112.505514
	112.003050
	111.771144
	111.597214
	111.403958
	111.191377
	110.949808
	110.737227
	110.543971
	110.370042
	110.196112
	110.031845
	109.857915
	110.147798
	110.543971
	110.592285
	110.147798
	109.626008
	109.123544
	108.881975
	108.698382
	108.495464
	108.292546
	108.021988
	107.857721
	107.674129
	107.480873
	107.316606
	107.152339
	107.306943
	107.838396
	108.021988
	107.703117
	107.277955
	106.756165
	106.427631
	106.147411
	105.857528
	105.577308
	105.316413
	105.094169
	104.900914
	104.630357
	104.475752
	104.311485
	104.620694
	105.219785
	105.239111
	104.939565
	104.514403
	104.137556
	103.866998
	103.577115
	103.335546
	103.036000
	102.717129
	102.436909
	102.205003
	101.924783
	101.779841
	101.799167
	102.369270
	102.717129
	102.533537
	102.233991
	101.828155
	101.538272
	101.316028
	101.055134
	100.726600
	100.398066
	100.069532
	99.779649
	99.480104
	99.277186
	99.228872
	99.808638
	100.224136
	100.166160
	100.088858
	99.808638
	99.605720
	99.364150
	99.025954
	98.736071
	98.417200
	98.107992
	97.769795
	97.441261
	97.141716
	97.025763
	97.644179
	98.069341
	98.107992
	98.011364
	97.731144
	97.373622
	97.103065
	96.832507
	96.571613
	96.262405
	95.991847
	95.663314
	95.383094
	95.073885
	94.851642
	95.334780
	95.769604
	95.759941
	95.518372
	95.189838
	94.832316
	94.619736
	94.378167
	94.126935
	93.827390
	93.498856
	93.170322
	92.870777
	92.580894
	92.291011
	92.435953
	92.928753
	92.861114
	92.658196
	92.339325
	92.020454
	91.807874
	91.585630
	91.344062
	91.121818
	90.851261
	90.580704
	90.300484
	90.000939
	89.798021
	90.107229
	90.271496
	90.107229
	89.865660
	89.546789
	89.247244
	89.073314
	88.841408
	88.599840
	88.338945
	88.058725
	87.768843
	87.498286
	87.256717
	87.391996
	87.652890
	87.546600
	87.305031
	86.947509
	86.686615
	86.493360
	86.251791
	86.000559
	85.710677
	85.430457
	85.159900
	84.908669
	84.618786
	84.473845
	85.005296
	85.043947
	84.927994
	84.638112
	84.328904
	84.154974
	83.942394
	83.671837
	83.401280
	83.101735
	82.821515
	82.521970
	82.203099
	81.913217
	82.009844
	82.309389
	82.203099
	81.971193
	81.594346
	81.343114
	81.159522
	80.908291
	80.686048
	80.396165
	80.115946
	79.893702
	79.642471
	79.352589
	79.294612
	79.574832
	79.449216
	79.246298
	78.879114
	78.627883
	78.444290
	78.241373
	77.990141
	77.748573
	77.478016
	77.217122
	76.936902
	76.704996
	76.975553
	77.072181
	76.917577
	76.666345
	76.308824
	76.076918
	75.912651
	75.700071
	75.419851
	75.139632
	74.878738
	74.608181
	74.337624
	74.183020
	74.617844
	74.550204
	74.347287
	74.057405
	73.825499
	73.661232
	73.448652
	73.236071
	72.955852
	72.656307
	72.385750
	72.124856
	71.863962
	71.989578
	72.115193
	71.960589
	71.680370
	71.380825
	71.139256
	70.994315
	70.762409
	70.520841
	70.298598
	70.047367
	69.805798
	69.554567
	69.622206
	69.699508
	69.544904
	69.264685
	68.936151
	68.771885
	68.597955
	68.404701
	68.182458
	67.940889
	67.699321
	67.525391
	67.467415
	67.651007
	67.544717
	67.332137
	67.032592
	66.791023
	66.597768
	66.414176
	66.211259
	65.960027
	65.737784
	65.447902
	65.312624
	65.534867
	65.457565
	65.244985
	64.964765
	64.723197
	64.568593
	64.423652
	64.182084
	63.979166
	63.737598
	63.496029
	63.380076
	63.582994
	63.544343
	63.380076
	63.148171
	62.993567
	62.829300
	62.626383
	62.442791
	62.220548
	61.978979
	61.776062
	61.602132
	61.708423
	61.592470
	61.399215
	61.147984
	60.983717
	60.858102
	60.674510
	60.471592
	60.230024
	60.007781
	59.795201
	59.785538
	59.795201
	59.650259
	59.437679
	59.234762
	59.080158
	58.944880
	58.732299
	58.539045
	58.336127
	58.142873
	58.026920
	58.094559
	58.007594
	57.785351
	57.534120
	57.389179
	57.186262
	57.002670
	56.838403
	56.645148
	56.451894
	56.258639
	56.297290
	56.451894
	56.355266
	56.181337
	55.939769
	55.823816
	55.678875
	55.466295
	55.273040
	55.050797
	54.838217
	54.606311
	54.500021
	54.538672
	54.451707
	54.239127
	54.016884
	53.823630
	53.678689
	53.514422
	53.301842
	53.098924
	52.915332
	52.722078
	52.548149
	52.625450
	52.538486
	52.316243
	52.094000
	51.929733
	51.804118
	51.620526
	51.446597
	51.263005
	51.098738
	50.895821
	50.750880
	50.828182
	50.731554
	50.576951
	50.364370
	50.200104
	50.055163
	49.881234
	49.697642
	49.494724
	49.320795
	49.185517
	49.040576
	49.146866
	49.088889
	48.905298
	48.692717
	48.576765
	48.451149
	48.248232
	48.035651
	47.842397
	47.620154
	47.417236
	47.417236
	47.378585
	47.127354
	46.924437
	46.740845
	46.566916
	46.383324
	46.151418
	45.900187
	45.726258
	45.658619
	45.629631
	45.407388
	45.146494
	44.972565
	44.779310
	44.508753
	44.305836
	44.102919
	43.871013
	43.871013
	43.735735
	43.542480
	43.291249
	43.146308
	42.904740
	42.711485
	42.498905
	42.305650
	42.093070
	42.093070
	42.025431
	41.764537
	41.590608
	41.436004
	41.223424
	41.039832

